*
POSN mm 	LOAD kn	STRAIN1 %	STRAIN2 %	STRESS(MPA)	TIME(sec)
-13.442344	0.004690	-1.771197	0.001496	0.213167	0.000000
-13.435995	0.058881	-1.771384	0.002440	2.676431	0.500000
-13.431762	0.091188	-1.771384	0.002251	4.144915	1.000000
-13.427529	0.136001	-1.771384	0.002440	6.181844	1.500000
-13.421180	0.174560	-1.771384	0.001024	7.934551	2.000000
-13.416947	0.267311	-1.771010	0.002251	12.150521	2.500000
-13.410598	0.335051	-1.771384	0.001779	15.229601	3.000000
-13.406366	0.466362	-1.771384	0.003668	21.198278	3.500000
-13.401075	0.619558	-1.771384	0.006406	28.161734	4.000000
-13.393667	0.749306	-1.771384	0.008295	34.059356	4.500000
-13.391551	0.908755	-1.771197	0.010797	41.307035	5.000000
-13.386260	1.054135	-1.771384	0.013488	47.915213	5.500000
-13.380969	1.219315	-1.771197	0.016274	55.423430	6.000000
-13.376736	1.369385	-1.771197	0.019296	62.244775	6.500000
-13.371445	1.555409	-1.771384	0.022459	70.700401	7.000000
-13.367213	1.721111	-1.771384	0.025859	78.232303	7.500000
-13.364038	1.790414	-1.771384	0.027039	81.382438	8.000000
-13.356631	2.018123	-1.771758	0.030392	91.732882	8.500000
-13.352398	2.165067	-1.771384	0.033697	98.412116	9.000000
-13.347107	2.351611	-1.771010	0.037568	106.891427	9.500000
-13.340758	2.506371	-1.771197	0.040307	113.925939	10.000000
-13.336525	2.669467	-1.771384	0.043234	121.339415	10.500000
-13.332293	2.825269	-1.771384	0.046162	128.421297	11.000000
-13.325943	2.933131	-1.771010	0.047767	133.324139	11.500000
-13.321711	3.140519	-1.771384	0.052016	142.750859	12.000000
-13.317478	3.308305	-1.771197	0.055180	150.377502	12.500000
-13.311129	3.459417	-1.771010	0.058815	157.246218	13.000000
-13.304780	3.623555	-1.771010	0.062309	164.707064	13.500000
-13.300547	3.758514	-1.771384	0.065142	170.841538	14.000000
-13.296314	3.916921	-1.771197	0.068636	178.041847	14.500000
-13.292081	4.043021	-1.771197	0.070336	183.773672	15.000000
-13.286791	4.217581	-1.771384	0.074302	191.708222	15.500000
-13.281500	4.358792	-1.771384	0.076899	198.126919	16.000000
-13.275150	4.490103	-1.771384	0.079637	204.095596	16.500000
-13.270918	4.652679	-1.771010	0.082989	211.485386	17.000000
-13.267743	4.790242	-1.771384	0.085917	217.738286	17.500000
-13.262452	4.960113	-1.771010	0.089127	225.459670	18.000000
-13.257161	5.098719	-1.771010	0.092716	231.759940	18.500000
-13.251870	5.237846	-1.771384	0.094652	238.083896	19.000000
-13.245521	5.370720	-1.771384	0.097437	244.123628	19.500000
-13.241289	5.482230	-1.771010	0.099704	249.192267	20.000000
-13.237056	5.661480	-1.771197	0.103575	257.339985	20.500000
-13.230707	5.786017	-1.771384	0.105936	263.000754	21.000000
-13.224358	5.812591	-1.771197	0.106597	264.208700	21.500000
-13.221183	6.042907	-1.771010	0.111602	274.677570	22.000000
-13.218008	6.137742	-1.771384	0.113491	278.988282	22.500000
-13.211659	6.276348	-1.771197	0.115851	285.288552	23.000000
-13.207427	6.407659	-1.771197	0.118637	291.257229	23.500000
-13.201077	6.519169	-1.771197	0.121423	296.325867	24.000000
-13.196845	6.650480	-1.771384	0.123784	302.294544	24.500000
-13.190496	6.729162	-1.771384	0.125767	305.871014	25.000000
-13.186263	6.877669	-1.771384	0.128222	312.621303	25.500000
-13.182030	7.016275	-1.771010	0.131244	318.921573	26.000000
-13.176739	7.121011	-1.771010	0.133132	323.682304	26.500000
-13.171448	7.234084	-1.771010	0.135493	328.821998	27.000000
-13.166157	7.341946	-1.771197	0.137665	333.724840	27.500000
-13.160866	7.451893	-1.771384	0.139648	338.722423	28.000000
-13.156634	7.500874	-1.771197	0.140309	340.948834	28.500000
-13.151343	7.683772	-1.771384	0.143944	349.262348	29.000000
-13.147110	7.779128	-1.771197	0.146683	353.596745	29.500000
-13.139703	7.877090	-1.771571	0.148430	358.049567	30.000000
-13.137586	7.994853	-1.771384	0.150980	363.402428	30.500000
-13.131237	8.076662	-1.771010	0.152066	367.121009	31.000000
-13.127004	8.206410	-1.771010	0.154851	373.018630	31.500000
-13.122772	8.331468	-1.771384	0.156929	378.703085	32.000000
-13.116423	8.423177	-1.771197	0.159195	382.871685	32.500000
-13.112190	8.541982	-1.771384	0.161131	388.271916	33.000000
-13.107957	8.608680	-1.771197	0.162406	391.303625	33.500000
-13.101608	8.750933	-1.771010	0.165994	397.769692	34.000000
-13.096317	8.870780	-1.771384	0.168166	403.217294	34.500000
-13.088910	8.904650	-1.771384	0.168733	404.756834	35.000000
-13.086793	9.084421	-1.771384	0.172415	412.928237	35.500000
-13.082561	9.170399	-1.771384	0.174493	416.836299	36.000000
-13.076212	9.288162	-1.771010	0.176193	422.189160	36.500000
-13.071979	9.384039	-1.771384	0.178081	426.547242	37.000000
-13.066688	9.521082	-1.771384	0.181197	432.776457	37.500000
-13.061397	9.628423	-1.771384	0.183369	437.655613	38.000000
-13.055048	9.700853	-1.771197	0.184691	440.947860	38.500000
-13.051873	9.843106	-1.771384	0.187902	447.413926	39.000000
-13.046582	9.948885	-1.771197	0.189602	452.222027	39.500000
-13.041291	10.085823	-1.771384	0.193001	458.446505	40.000000
-13.037059	10.190038	-1.771384	0.194984	463.183550	40.500000
-13.031768	10.303632	-1.771010	0.197015	468.346930	41.000000
-13.025419	10.414100	-1.771384	0.199470	473.368198	41.500000
-13.021186	10.448491	-1.771010	0.200036	474.931422	42.000000
-13.016953	10.645458	-1.771384	0.204144	483.884438	42.500000
-13.010604	10.753841	-1.771197	0.206033	488.810965	43.000000
-13.007429	10.857014	-1.771197	0.208582	493.500640	43.500000
-13.000022	10.982072	-1.771197	0.211132	499.185094	44.000000
-12.996848	11.084203	-1.771384	0.213115	503.827399	44.500000
-12.991557	11.203008	-1.771197	0.216231	509.227630	45.000000
-12.986266	11.336403	-1.771384	0.218875	515.291048	45.500000
-12.982033	11.437492	-1.771010	0.221000	519.885982	46.000000
-12.975684	11.559423	-1.771384	0.223691	525.428325	46.500000
-12.972509	11.643837	-1.771197	0.225485	529.265332	47.000000
-12.966160	11.774106	-1.771010	0.228318	535.186638	47.500000
-12.961928	11.861647	-1.771384	0.230585	539.165756	48.000000
-12.953462	11.844972	-1.771384	0.229451	538.407829	48.500000
-12.953462	12.132606	-1.771010	0.235306	551.482074	49.000000
-12.947113	12.244116	-1.771384	0.237997	556.550713	49.500000
-12.940764	12.346246	-1.771197	0.240311	561.193017	50.000000
-12.936531	12.429618	-1.771384	0.242058	564.982653	50.500000
-12.931240	12.591152	-1.771384	0.245505	572.325073	51.000000
-12.927007	12.697451	-1.771384	0.247960	577.156860	51.500000
-12.919600	12.782907	-1.771384	0.249660	581.041237	52.000000
-12.916426	12.928808	-1.771384	0.252115	587.673100	52.500000
-12.913251	13.018433	-1.771384	0.254381	591.746959	53.000000
-12.906902	13.139322	-1.771197	0.256836	597.241932	53.500000
-12.902669	13.249790	-1.771010	0.258914	602.263200	54.000000
-12.897378	13.383186	-1.771384	0.261936	608.326617	54.500000
-12.892087	13.505117	-1.771384	0.264485	613.868960	55.000000
-12.888913	13.544719	-1.771197	0.265099	615.669038	55.500000
-12.881505	13.717716	-1.771384	0.268735	623.532533	56.000000
-12.877273	13.837563	-1.771384	0.271568	628.980135	56.500000
-12.871982	13.945947	-1.771197	0.273362	633.906662	57.000000
-12.866691	14.054330	-1.771384	0.276289	638.833189	57.500000
-12.862458	14.167925	-1.771384	0.278367	643.996568	58.000000
-12.856109	14.276308	-1.771384	0.281011	648.923095	58.500000
-12.851876	14.336753	-1.771197	0.282333	651.670582	59.000000
-12.846585	14.519129	-1.771384	0.285921	659.960411	59.500000
-12.841294	14.618133	-1.771384	0.288423	664.460604	60.000000
-12.838120	14.705674	-1.771384	0.290737	668.439722	60.500000
-12.832829	14.825521	-1.771384	0.293098	673.887324	61.000000
-12.826480	14.917230	-1.771010	0.295931	678.055924	61.500000
-12.818014	15.001644	-1.771384	0.297583	681.892931	62.000000
-12.815898	15.151714	-1.771384	0.299897	688.714276	62.500000
-12.811665	15.240297	-1.771010	0.301974	692.740764	63.000000
-12.806374	15.352849	-1.771384	0.304618	697.856773	63.500000
-12.803200	15.415378	-1.771384	0.305846	700.699000	64.000000
-12.796851	15.550858	-1.771384	0.309623	706.857159	64.500000
-12.791560	15.667578	-1.771384	0.311795	712.162650	65.000000
-12.787327	15.746782	-1.771197	0.313495	715.762804	65.500000
-12.782036	15.867671	-1.771197	0.316139	721.257777	66.000000
-12.775687	15.945832	-1.771384	0.317414	724.810561	66.500000
-12.771454	16.051089	-1.771384	0.319869	729.594977	67.000000
-12.767221	16.153220	-1.771758	0.321994	734.237281	67.500000
-12.761930	16.259519	-1.771197	0.324260	739.069067	68.000000
-12.756640	16.360608	-1.771197	0.326621	743.664001	68.500000
-12.750290	16.397083	-1.771010	0.327282	745.321967	69.000000
-12.747116	16.542984	-1.771384	0.330492	751.953830	69.500000
-12.741825	16.613850	-1.771010	0.331909	755.175021	70.000000
-12.736534	16.736824	-1.771384	0.334600	760.764734	70.500000
-12.731243	16.826449	-1.771758	0.336536	764.838593	71.000000
-12.727010	16.910863	-1.771197	0.338236	768.675600	71.500000
-12.721719	16.998404	-1.771010	0.340691	772.654718	72.000000
-12.716428	17.030710	-1.771010	0.341257	774.123202	72.500000
-12.712196	17.182864	-1.771197	0.344751	781.039288	73.000000
-12.706905	17.274574	-1.771197	0.346546	785.207888	73.500000
-12.702672	17.349608	-1.771197	0.348529	788.618561	74.000000
-12.697381	17.449655	-1.771384	0.350700	793.166124	74.500000
-12.691032	17.495509	-1.771197	0.351928	795.250424	75.000000
-12.682567	17.562207	-1.771197	0.353722	798.282133	75.500000
-12.682567	17.627862	-1.771384	0.355422	801.266472	76.000000
-12.677276	17.767510	-1.771197	0.357688	807.614112	76.500000
-12.671985	17.854009	-1.771197	0.360427	811.545860	77.000000
-12.665636	17.897779	-1.771384	0.361277	813.535419	77.500000
-12.662461	17.993657	-1.771010	0.363637	817.893501	78.000000
-12.657170	18.052017	-1.771384	0.365290	820.546246	78.500000
-12.651879	18.160401	-1.771384	0.367367	825.472773	79.000000
-12.646588	18.230225	-1.771384	0.369303	828.646593	79.500000
-12.642355	18.300049	-1.771384	0.371097	831.820414	80.000000
-12.636006	18.364662	-1.771197	0.372608	834.757382	80.500000
-12.632832	18.400095	-1.771384	0.373836	836.367977	81.000000
-12.626483	18.518901	-1.771197	0.376386	841.768209	81.500000
-12.621192	18.582472	-1.771384	0.377566	844.657806	82.000000
-12.618017	18.598104	-1.771758	0.378558	845.368363	82.500000
-12.610610	18.712740	-1.771384	0.381485	850.579113	83.000000
-12.606377	18.749216	-1.771197	0.382335	852.237079	83.500000
-12.601086	18.835714	-1.771384	0.384790	856.168826	84.000000
-12.595795	18.885737	-1.771384	0.385404	858.442608	84.500000
-12.591563	18.933676	-1.771010	0.387387	860.621649	85.000000
-12.587330	19.000374	-1.771197	0.388567	863.653358	85.500000
-12.583097	19.000374	-1.771384	0.388378	863.653358	86.000000
-12.576748	19.094167	-1.771197	0.390739	867.916699	86.500000
-12.572515	19.155654	-1.771197	0.392392	870.711555	87.000000
-12.568282	19.198382	-1.771010	0.393430	872.653744	87.500000
-12.561933	19.253616	-1.771197	0.394752	875.164378	88.000000
-12.557701	19.280712	-1.771197	0.395272	876.396010	88.500000
-12.551352	19.322398	-1.771384	0.396499	878.290828	89.000000
-12.547119	19.295302	-1.771384	0.396594	877.059196	89.500000
-12.542886	19.419318	-1.771384	0.398860	882.696280	90.000000
-12.536537	19.463088	-1.771197	0.400371	884.685839	90.500000
-12.532304	19.486016	-1.771197	0.400938	885.727989	91.000000
-12.527013	19.544376	-1.771384	0.401882	888.380734	91.500000
-12.521722	19.571472	-1.771384	0.403251	889.612366	92.000000
-12.516431	19.648591	-1.771384	0.404526	893.117780	92.500000
-12.512199	19.691319	-1.771197	0.405848	895.059968	93.000000
-12.506908	19.729879	-1.771384	0.407359	896.812675	93.500000
-12.501617	19.781986	-1.771384	0.408492	899.181197	94.000000
-12.498442	19.790324	-1.771010	0.409059	899.560161	94.500000
-12.492093	19.873696	-1.771384	0.410475	903.349797	95.000000
-12.487860	19.927887	-1.771384	0.411892	905.813061	95.500000
-12.479395	19.944562	-1.771384	0.412694	906.570988	96.000000
-12.476220	20.021076	-1.771384	0.414441	910.048928	96.500000
-12.471988	20.046088	-1.771384	0.415338	911.185818	97.000000
-12.466697	20.094027	-1.771384	0.416519	913.364859	97.500000
-12.462464	20.137797	-1.771197	0.418124	915.354418	98.000000
-12.457173	20.183652	-1.771197	0.419257	917.438718	98.500000
-12.451882	20.233675	-1.771384	0.420768	919.712500	99.000000
-12.448707	20.233675	-1.771384	0.420579	919.712500	99.500000
-12.441300	20.317047	-1.771197	0.422185	923.502136	100.000000
-12.437067	20.352480	-1.771384	0.423601	925.112732	100.500000
-12.430718	20.412925	-1.771384	0.425206	927.860218	101.000000
-12.426486	20.450442	-1.771384	0.426009	929.565554	101.500000
-12.420136	20.498381	-1.771384	0.427425	931.744595	102.000000
-12.419078	20.465032	-1.771197	0.427756	930.228740	102.500000
-12.411671	20.444189	-1.771384	0.426906	929.281331	103.000000
-12.407438	20.654704	-1.771197	0.431675	938.850163	103.500000
-12.402147	20.708895	-1.771384	0.433044	941.313426	104.000000
-12.397915	20.756834	-1.771010	0.434649	943.492467	104.500000
-12.391565	20.842291	-1.771197	0.436821	947.376844	105.000000
-12.387333	20.883977	-1.771384	0.438002	949.271662	105.500000
-12.382042	20.952758	-1.771384	0.439937	952.398112	106.000000
-12.377809	21.009035	-1.771197	0.441590	954.956117	106.500000
-12.371460	21.100744	-1.771384	0.443998	959.124717	107.000000
-12.367227	21.175779	-1.771384	0.445887	962.535389	107.500000
-12.361936	21.217465	-1.771384	0.447397	964.430207	108.000000
-12.357704	21.309174	-1.771384	0.449664	968.598807	108.500000
-12.352413	21.380040	-1.771197	0.451175	971.819998	109.000000
-12.343947	21.442569	-1.771384	0.453913	974.662225	109.500000
-12.341831	21.542615	-1.771384	0.456463	979.209789	110.000000
-12.337598	21.596807	-1.771197	0.458540	981.673052	110.500000
-12.332307	21.667673	-1.771384	0.459910	984.894243	111.000000
-12.327016	21.709359	-1.771197	0.462412	986.789061	111.500000
-12.321725	21.819827	-1.771197	0.465670	991.810329	112.000000
-12.316434	21.888609	-1.771197	0.467417	994.936779	112.500000
-12.312202	21.930295	-1.771384	0.468928	996.831597	113.000000
-12.306911	22.026173	-1.771384	0.471761	1001.189679	113.500000
-12.301620	22.067859	-1.771010	0.473744	1003.084497	114.000000
-12.297387	22.163737	-1.771384	0.476293	1007.442579	114.500000
-12.292096	22.242940	-1.771384	0.479126	1011.042733	115.000000
-12.286805	22.299216	-1.771384	0.481109	1013.600737	115.500000
-12.282572	22.382588	-1.771197	0.483564	1017.390374	116.000000
-12.276223	22.342987	-1.771384	0.483659	1015.590296	116.500000
-12.271990	22.493056	-1.771384	0.488097	1022.411642	117.000000
-12.266700	22.586850	-1.771384	0.490552	1026.674982	117.500000
-12.262467	22.651463	-1.771384	0.493102	1029.611950	118.000000
-12.257176	22.720245	-1.771197	0.495085	1032.738400	118.500000
-12.251885	22.784858	-1.771384	0.497776	1035.675368	119.000000
-12.246594	22.849471	-1.771197	0.499995	1038.612336	119.500000
-12.242361	22.878652	-1.771384	0.501978	1039.938709	120.000000
-12.236012	23.009962	-1.771197	0.506322	1045.907386	120.500000
-12.231779	23.064154	-1.771384	0.508305	1048.370650	121.000000
-12.227547	23.116262	-1.771384	0.510760	1050.739172	121.500000
-12.222256	23.197549	-1.771197	0.513593	1054.434068	122.000000
-12.216965	23.260078	-1.771197	0.515860	1057.276295	122.500000
-12.211674	23.343450	-1.771384	0.519354	1061.065931	123.000000
-12.207441	23.422654	-1.771197	0.522375	1064.666085	123.500000
-12.202150	23.476846	-1.771384	0.524925	1067.129349	124.000000
-12.197918	23.547712	-1.771197	0.528089	1070.350540	124.500000
-12.191568	23.576892	-1.771384	0.529741	1071.676912	125.000000
-12.187336	23.693613	-1.771197	0.533518	1076.982403	125.500000
-12.180987	23.764479	-1.771384	0.536493	1080.203594	126.000000
-12.177812	23.806165	-1.771384	0.539184	1082.098412	126.500000
-12.172521	23.904127	-1.771197	0.542489	1086.551235	127.000000
-12.166172	23.947897	-1.771010	0.544944	1088.540794	127.500000
-12.161939	24.022932	-1.771197	0.548438	1091.951466	128.000000
-12.157706	24.095883	-1.771197	0.551555	1095.267398	128.500000
-12.152415	24.177170	-1.771384	0.555237	1098.962293	129.000000
-12.148183	24.243868	-1.771197	0.558165	1101.994002	129.500000
-12.140775	24.202182	-1.771384	0.559015	1100.099184	130.000000
-12.137601	24.381432	-1.771384	0.564680	1108.246902	130.500000
-12.132310	24.452298	-1.771010	0.568269	1111.468093	131.000000
-12.127019	24.527333	-1.771010	0.571763	1114.878765	131.500000
-12.122786	24.594030	-1.771384	0.575446	1117.910474	132.000000
-12.116437	24.654475	-1.771197	0.579506	1120.657961	132.500000
-12.112204	24.725341	-1.771384	0.582245	1123.879151	133.000000
-12.106914	24.731594	-1.771010	0.584511	1124.163374	133.500000
-12.101623	24.869158	-1.771384	0.589988	1130.416274	134.000000
-12.097390	24.927518	-1.771384	0.593765	1133.069019	134.500000
-12.092099	24.981710	-1.772693	0.596881	1135.532283	135.000000
-12.085750	25.052576	-1.772132	0.600847	1138.753474	135.500000
-12.082575	25.094262	-1.772132	0.604200	1140.648292	136.000000
-12.077284	25.177634	-1.772319	0.608449	1144.437928	136.500000
-12.073052	25.235995	-1.772132	0.611282	1147.090673	137.000000
-12.067761	25.302692	-1.772319	0.615767	1150.122382	137.500000
-12.061412	25.369390	-1.772132	0.619828	1153.154091	138.000000
-12.056121	25.402739	-1.772132	0.623227	1154.669946	138.500000
-12.051888	25.477774	-1.772132	0.627382	1158.080618	139.000000
-12.047655	25.556977	-1.772132	0.631868	1161.680773	139.500000
-12.043422	25.604916	-1.771945	0.635881	1163.859814	140.000000
-12.037073	25.677866	-1.772132	0.639658	1167.175745	140.500000
-12.032841	25.727890	-1.772132	0.643861	1169.449527	141.000000
-12.026491	25.779997	-1.771758	0.647779	1171.818050	141.500000
-12.022259	25.819599	-1.771945	0.651651	1173.618127	142.000000
-12.016968	25.911308	-1.771758	0.656798	1177.786727	142.500000
-12.011677	25.961331	-1.772319	0.660622	1180.060508	143.000000
-12.005328	25.927982	-1.772132	0.663408	1178.544654	143.500000
-12.002153	26.061378	-1.772132	0.668365	1184.608072	144.000000
-11.996862	26.096811	-1.772132	0.672520	1186.218667	144.500000
-11.992629	26.182267	-1.772132	0.677808	1190.103044	145.000000
-11.987339	26.230206	-1.771945	0.681963	1192.282085	145.500000
-11.982048	26.278145	-1.772132	0.686543	1194.461126	146.000000
-11.976757	26.336505	-1.771945	0.691406	1197.113871	146.500000
-11.971466	26.334421	-1.772319	0.695184	1197.019130	147.000000
-11.967233	26.432383	-1.771945	0.701274	1201.471953	147.500000
-11.961942	26.490743	-1.772132	0.706799	1204.124698	148.000000
-11.957709	26.530345	-1.772132	0.711048	1205.924776	148.500000
-11.952418	26.584537	-1.771384	0.716242	1208.388039	149.000000
-11.948186	26.622054	-1.772132	0.721860	1210.093375	149.500000
-11.941837	26.667909	-1.771945	0.726535	1212.177675	150.000000
-11.937604	26.653319	-1.772319	0.730123	1211.514489	150.500000
-11.932313	26.784630	-1.772132	0.737300	1217.483166	151.000000
-11.927022	26.820063	-1.772132	0.742210	1219.093761	151.500000
-11.923847	26.861749	-1.771945	0.748065	1220.988580	152.000000
-11.916440	26.911772	-1.772132	0.753542	1223.262361	152.500000
-11.912207	26.947205	-1.772132	0.758735	1224.872957	153.000000
-11.907975	27.011818	-1.772132	0.765062	1227.809925	153.500000
-11.901626	27.070179	-1.772132	0.770162	1230.462670	154.000000
-11.897393	27.111865	-1.771945	0.776016	1232.357488	154.500000
-11.892102	27.136876	-1.771758	0.781729	1233.494379	155.000000
-11.888927	27.136876	-1.772132	0.786215	1233.494379	155.500000
-11.882578	27.224417	-1.771945	0.793297	1237.473497	156.000000
-11.869880	27.218164	-1.772319	0.797546	1237.189274	156.500000
-11.869880	27.136876	-1.771758	0.799860	1233.494379	157.000000
-11.867764	27.378655	-1.771758	0.809303	1244.484324	157.500000
-11.861414	27.378655	-1.771384	0.815394	1244.484324	158.000000
-11.857182	27.416173	-1.771758	0.822382	1246.189660	158.500000
-11.851891	27.472449	-1.771945	0.829370	1248.747665	159.000000
-11.847658	27.503713	-1.772132	0.835696	1250.168779	159.500000
-11.842367	27.539146	-1.772132	0.842495	1251.779374	160.000000
-11.838134	27.532893	-1.772132	0.849011	1251.495151	160.500000
-11.832843	27.607928	-1.771945	0.856896	1254.905824	161.000000
-11.827553	27.637108	-1.772319	0.864403	1256.232196	161.500000
-11.823320	27.689216	-1.772132	0.872052	1258.600719	162.000000
-11.816971	27.712143	-1.772319	0.879418	1259.642869	162.500000
-11.812738	27.749661	-1.774003	0.887633	1261.348205	163.000000
-11.806389	27.783009	-1.774377	0.895566	1262.864060	163.500000
-11.802156	27.728818	-1.773628	0.900948	1260.400796	164.000000
-11.795807	27.862213	-1.774003	0.910785	1266.464214	164.500000
-11.792632	27.878887	-1.774003	0.919189	1267.222142	165.000000
-11.787341	27.899730	-1.773628	0.927027	1268.169551	165.500000
-11.780992	27.939332	-1.774003	0.935809	1269.969628	166.000000
-11.776760	27.947669	-1.774003	0.943269	1270.348591	166.500000
-11.771469	27.997692	-1.774003	0.952523	1272.622373	167.000000
-11.766178	28.037294	-1.773816	0.960833	1274.422450	167.500000
-11.761945	28.045631	-1.773816	0.969238	1274.801414	168.000000
-11.757712	28.078980	-1.773628	0.978208	1276.317268	168.500000
-11.752421	28.072727	-1.773816	0.986329	1276.033046	169.000000
-11.748189	28.116497	-1.774003	0.995773	1278.022605	169.500000
-11.742898	28.137340	-1.774003	1.005404	1278.970014	170.000000
-11.738665	28.120666	-1.774003	1.013903	1278.212087	170.500000
-11.732316	28.206122	-1.773816	1.023724	1282.096464	171.000000
-11.727025	28.222797	-1.773816	1.034300	1282.854391	171.500000
-11.723850	28.233218	-1.774003	1.044215	1283.328095	172.000000
-11.717501	28.233218	-1.773816	1.054036	1283.328095	172.500000
-11.712210	28.287410	-1.774003	1.066029	1285.791359	173.000000
-11.707978	28.312421	-1.773628	1.077455	1286.928250	173.500000
-11.700570	28.283241	-1.773628	1.088126	1285.601877	174.000000
-11.697396	28.339517	-1.773628	1.100118	1288.159882	174.500000
-11.692105	28.341602	-1.773628	1.110978	1288.254623	175.000000
-11.687872	28.379119	-1.773628	1.123915	1289.959959	175.500000
-11.682581	28.391625	-1.773628	1.135530	1290.528404	176.000000
-11.677290	28.399962	-1.773628	1.147617	1290.907368	176.500000
-11.671999	28.420805	-1.773628	1.159515	1291.854777	177.000000
-11.666708	28.362445	-1.773628	1.169903	1289.202032	177.500000
-11.662476	28.445817	-1.774190	1.183123	1292.991668	178.000000
-11.657185	28.470828	-1.774003	1.196154	1294.128559	178.500000
-11.652952	28.466660	-1.773816	1.208903	1293.939077	179.000000
-11.647661	28.487503	-1.773816	1.221367	1294.886486	179.500000
-11.643428	28.483334	-1.773628	1.234493	1294.697004	180.000000
-11.637079	28.495840	-1.774003	1.248469	1295.265450	180.500000
-11.632846	28.479165	-1.773816	1.260556	1294.507522	181.000000
-11.627555	28.529189	-1.773628	1.276043	1296.781304	181.500000
-11.622265	28.531273	-1.773628	1.290019	1296.876045	182.000000
-11.615915	28.520851	-1.773816	1.304466	1296.402340	182.500000
-11.611683	28.539610	-1.774003	1.319198	1297.255009	183.000000
-11.607450	28.541694	-1.773816	1.334307	1297.349749	183.500000
-11.598984	28.487503	-1.774003	1.348188	1294.886486	184.000000
-11.596868	28.604223	-1.774003	1.362919	1300.191977	184.500000
-11.592635	28.587549	-1.774003	1.378878	1299.434049	185.000000
-11.588403	28.583380	-1.774003	1.395403	1299.244568	185.500000
-11.582053	28.539610	-1.773628	1.409757	1297.255009	186.000000
-11.577821	28.583380	-1.774003	1.426565	1299.244568	186.500000
-11.572530	28.600055	-1.773816	1.443468	1300.002495	187.000000
-11.569355	28.579212	-1.774003	1.459333	1299.055086	187.500000
-11.563006	28.608392	-1.773628	1.475480	1300.381458	188.000000
-11.557715	28.589633	-1.773628	1.492100	1299.528790	188.500000
-11.553482	28.587549	-1.773628	1.509192	1299.434049	189.000000
-11.547133	28.612561	-1.774003	1.526379	1300.570940	189.500000
-11.541842	28.600055	-1.773816	1.543659	1300.002495	190.000000
-11.537610	28.608392	-1.773816	1.561035	1300.381458	190.500000
-11.531261	28.537526	-1.773628	1.576332	1297.160268	191.000000
-11.528086	28.593802	-1.774003	1.594274	1299.718272	191.500000
-11.522795	28.612561	-1.773628	1.612216	1300.570940	192.000000
-11.517504	28.612561	-1.773628	1.631008	1300.570940	192.500000
-11.512213	28.593802	-1.774003	1.648477	1299.718272	193.000000
-11.507980	28.600055	-1.774003	1.666986	1300.002495	193.500000
-11.502690	28.591718	-1.774003	1.685117	1299.623531	194.000000
-11.497399	28.527104	-1.773628	1.701736	1296.686563	194.500000
-11.492108	28.606308	-1.773816	1.722322	1300.286718	195.000000
-11.487875	28.595886	-1.773628	1.740831	1299.813013	195.500000
-11.482584	28.581296	-1.774003	1.760567	1299.149827	196.000000
-11.477293	28.595886	-1.773628	1.779075	1299.813013	196.500000
-11.472002	28.564622	-1.773816	1.798245	1298.391899	197.000000
-11.467769	28.550032	-1.773628	1.816982	1297.728713	197.500000
-11.462478	28.600055	-1.773816	1.833791	1300.002495	198.000000
-11.457188	28.579212	-1.773628	1.854377	1299.055086	198.500000
-11.452955	28.579212	-1.773628	1.873830	1299.055086	199.000000
-11.446606	28.537526	-1.774003	1.892716	1297.160268	199.500000
-11.442373	28.560453	-1.774003	1.912735	1298.202418	200.000000
-11.436024	28.579212	-1.774190	1.933321	1299.055086	200.500000
-11.431791	28.541694	-1.773628	1.952963	1297.349749	201.000000
-11.427558	28.562537	-1.773628	1.972038	1298.297159	201.500000
-11.423326	28.541694	-1.773628	1.992057	1297.349749	202.000000
-11.416977	28.531273	-1.773816	2.012265	1296.876045	202.500000
-11.412744	28.495840	-1.774003	2.030585	1295.265450	203.000000
-11.407453	28.539610	-1.773816	2.051548	1297.255009	203.500000
-11.403220	28.531273	-1.774003	2.072134	1296.876045	204.000000
-11.395813	28.462491	-1.773628	2.090265	1293.749595	204.500000
-11.392638	28.525020	-1.773628	2.110284	1296.591822	205.000000
-11.387347	28.491671	-1.773816	2.130681	1295.075968	205.500000
-11.382056	28.516683	-1.774003	2.151834	1296.212859	206.000000
-11.376765	28.512514	-1.774003	2.172231	1296.023377	206.500000
-11.370416	28.491671	-1.774003	2.192061	1295.075968	207.000000
-11.368300	28.495840	-1.773816	2.213025	1295.265450	207.500000
-11.361951	28.422889	-1.773441	2.232289	1291.949518	208.000000
-11.357718	28.479165	-1.773628	2.254008	1294.507522	208.500000
-11.351369	28.479165	-1.774190	2.275727	1294.507522	209.000000
-11.348194	28.462491	-1.774003	2.295746	1293.749595	209.500000
-11.342904	28.466660	-1.774003	2.316710	1293.939077	210.000000
-11.336554	28.445817	-1.774003	2.337673	1292.991668	210.500000
-11.335496	28.364529	-1.773628	2.355048	1289.296773	211.000000
-11.328089	28.279073	-1.773816	2.367324	1285.412395	211.500000
-11.322798	28.462491	-1.773816	2.393198	1293.749595	212.000000
-11.317507	28.452070	-1.773628	2.414729	1293.275891	212.500000
-11.311158	28.408299	-1.773628	2.436637	1291.286332	213.000000
-11.306925	28.416636	-1.773816	2.458545	1291.665295	213.500000
-11.302692	28.406215	-1.774003	2.479886	1291.191591	214.000000
-11.297401	28.406215	-1.774003	2.502738	1291.191591	214.500000
-11.292111	28.399962	-1.774003	2.523135	1290.907368	215.000000
-11.287878	28.387456	-1.774190	2.545798	1290.338922	215.500000
-11.282587	28.379119	-1.773441	2.567706	1289.959959	216.000000
-11.277296	28.329096	-1.773628	2.587348	1287.686177	216.500000
-11.273063	28.370782	-1.774190	2.610767	1289.580995	217.000000
-11.267772	28.358276	-1.774003	2.632675	1289.012550	217.500000
-11.263540	28.312421	-1.773628	2.653827	1286.928250	218.000000
-11.257190	28.356192	-1.774003	2.674980	1288.917809	218.500000
-11.252958	28.322843	-1.773816	2.696699	1287.401954	219.000000
-11.247667	28.316590	-1.773628	2.719362	1287.117732	219.500000
-11.243434	28.287410	-1.773628	2.739381	1285.791359	220.000000
-11.238143	28.312421	-1.773816	2.762611	1286.928250	220.500000
-11.232852	28.316590	-1.774003	2.784897	1287.117732	221.000000
-11.226503	28.245724	-1.773816	2.806616	1283.896541	221.500000
-11.222270	28.279073	-1.773628	2.829657	1285.412395	222.000000
-11.216979	28.291578	-1.773816	2.852887	1285.980841	222.500000
-11.211688	28.262398	-1.773816	2.875928	1284.654468	223.000000
-11.207456	28.258230	-1.774003	2.897458	1284.464986	223.500000
-11.201107	28.237387	-1.773628	2.920499	1283.517577	224.000000
-11.197932	28.220712	-1.773816	2.942407	1282.759650	224.500000
-11.192641	28.112329	-1.774003	2.958649	1277.833123	225.000000
-11.187350	28.229050	-1.774003	2.982824	1283.138614	225.500000
-11.183117	28.214459	-1.773628	3.005487	1282.475427	226.000000
-11.178885	28.185279	-1.773628	3.026640	1281.149055	226.500000
-11.173594	28.195701	-1.773816	3.049492	1281.622759	227.000000
-11.167245	28.158183	-1.773816	3.071211	1279.917423	227.500000
-11.161954	28.183195	-1.773628	3.094252	1281.054314	228.000000
-11.156663	28.168605	-1.774190	3.115404	1280.391127	228.500000
-11.152430	28.149846	-1.774003	3.138445	1279.538459	229.000000
-11.148197	28.145678	-1.773816	3.160353	1279.348977	229.500000
-11.143965	28.087317	-1.773816	3.181128	1276.696232	230.000000
-11.137615	28.112329	-1.774003	3.203414	1277.833123	230.500000
-11.133383	28.112329	-1.773816	3.225699	1277.833123	231.000000
-11.129150	28.078980	-1.774003	3.246663	1276.317268	231.500000
-11.122801	28.103992	-1.774003	3.267627	1277.454159	232.000000
-11.116452	28.087317	-1.773628	3.290668	1276.696232	232.500000
-11.113277	28.070643	-1.773628	3.312765	1275.938305	233.000000
-11.107986	28.039378	-1.774003	3.334484	1274.517191	233.500000
-11.102695	28.058137	-1.774003	3.357525	1275.369859	234.000000
-11.097404	28.045631	-1.773628	3.379810	1274.801414	234.500000
-11.091055	27.985186	-1.774190	3.401340	1272.053928	235.000000
-11.087881	28.014367	-1.773628	3.422493	1273.380300	235.500000
-11.082590	27.985186	-1.773628	3.444023	1272.053928	236.000000
-11.078357	28.008114	-1.773628	3.466498	1273.096078	236.500000
-11.074124	27.987271	-1.773628	3.488217	1272.148669	237.000000
-11.067775	27.978934	-1.774190	3.510502	1271.769705	237.500000
-11.063542	27.945585	-1.774003	3.532221	1270.253850	238.000000
-11.057193	27.812190	-1.773441	3.547519	1264.190433	238.500000
-11.052961	27.970596	-1.773628	3.572071	1271.390741	239.000000
-11.047670	27.949753	-1.773628	3.595490	1270.443332	239.500000
-11.042379	27.912236	-1.774190	3.617020	1268.737996	240.000000
-11.038146	27.916405	-1.774003	3.637542	1268.927478	240.500000
-11.031797	27.878887	-1.773816	3.659072	1267.222142	241.000000
-11.027564	27.868466	-1.773628	3.681358	1266.748437	241.500000
-11.023331	27.858044	-1.774190	3.700999	1266.274732	242.000000
-11.018040	27.858044	-1.773628	3.723663	1266.274732	242.500000
-11.012750	27.853876	-1.773816	3.745571	1266.085251	243.000000
-11.008517	27.803852	-1.773628	3.767478	1263.811469	243.500000
-11.002168	27.820527	-1.774003	3.790142	1264.569396	244.000000
-10.997935	27.799684	-1.773628	3.811294	1263.621987	244.500000
-10.992644	27.785094	-1.773816	3.833580	1262.958801	245.000000
-10.988411	27.799684	-1.773816	3.854355	1263.621987	245.500000
-10.983120	27.783009	-1.773628	3.876640	1262.864060	246.000000
-10.978888	27.762166	-1.773628	3.898926	1261.916651	246.500000
-10.972539	27.703806	-1.773628	3.918945	1259.263905	247.000000
-10.968306	27.745492	-1.773441	3.942364	1261.158724	247.500000
-10.963015	27.728818	-1.773628	3.963894	1260.400796	248.000000
-10.958782	27.682963	-1.773816	3.984291	1258.316496	248.500000
-10.953491	27.712143	-1.773628	4.006199	1259.642869	249.000000
-10.948200	27.674626	-1.773628	4.027352	1257.937533	249.500000
-10.942909	27.668373	-1.773816	4.050015	1257.653310	250.000000
-10.937618	27.670457	-1.773628	4.071923	1257.748051	250.500000
-10.932327	27.645446	-1.773628	4.093076	1256.611160	251.000000
-10.928095	27.637108	-1.774003	4.114228	1256.232196	251.500000
-10.921746	27.512050	-1.773628	4.130848	1250.547742	252.000000
-10.918571	27.616265	-1.773628	4.152756	1255.284787	252.500000
-10.913280	27.599591	-1.773816	4.173908	1254.526860	253.000000
-10.906931	27.599591	-1.773441	4.196572	1254.526860	253.500000
-10.903756	27.582917	-1.773628	4.217724	1253.768933	254.000000
-10.898466	27.566242	-1.774003	4.239632	1253.011006	254.500000
-10.893175	27.545399	-1.773628	4.261540	1252.063597	255.000000
-10.887884	27.482870	-1.774003	4.281181	1249.221369	255.500000
-10.883651	27.541231	-1.773816	4.305356	1251.874115	256.000000
-10.877302	27.514135	-1.773628	4.326508	1250.642483	256.500000
-10.873069	27.480786	-1.774003	4.348416	1249.126629	257.000000
-10.866720	27.487039	-1.773628	4.370324	1249.410851	257.500000
-10.862487	27.445353	-1.774003	4.391476	1247.516033	258.000000
-10.857196	27.459943	-1.773628	4.414140	1248.179219	258.500000
-10.854022	27.455774	-1.774003	4.433781	1247.989738	259.000000
-10.847673	27.437016	-1.773816	4.455689	1247.137070	259.500000
-10.843440	27.424510	-1.774190	4.477597	1246.568624	260.000000
-10.839207	27.366149	-1.773628	4.497994	1243.915879	260.500000
-10.832858	27.395330	-1.773628	4.520280	1245.242251	261.000000
-10.827567	27.386992	-1.773628	4.542566	1244.863288	261.500000
-10.824393	27.353644	-1.773441	4.563718	1243.347433	262.000000
-10.816985	27.366149	-1.773816	4.584871	1243.915879	262.500000
-10.813811	27.322379	-1.773628	4.606778	1241.926320	263.000000
-10.807462	27.311958	-1.773628	4.627175	1241.452615	263.500000
-10.803229	27.270272	-1.773628	4.648328	1239.557797	264.000000
-10.797938	27.299452	-1.773628	4.671747	1240.884170	264.500000
-10.794763	27.199405	-1.773628	4.689877	1236.336606	265.000000
-10.786298	27.082685	-1.774003	4.701209	1231.031116	265.500000
-10.783123	27.345306	-1.773628	4.725383	1242.968470	266.000000
-10.777832	27.278609	-1.773628	4.749558	1239.936761	266.500000
-10.772541	27.261934	-1.773628	4.774487	1239.178833	267.000000
-10.767251	27.230670	-1.773816	4.796395	1237.757720	267.500000
-10.761960	27.205658	-1.774003	4.819814	1236.620829	268.000000
-10.757727	27.180647	-1.773816	4.842855	1235.483938	268.500000
-10.752436	27.111865	-1.773628	4.863252	1232.357488	269.000000
-10.747145	27.166057	-1.773816	4.887049	1234.820752	269.500000
-10.741854	27.151466	-1.774003	4.909712	1234.157565	270.000000
-10.737621	27.122286	-1.773816	4.932375	1232.831193	270.500000
-10.733389	27.120202	-1.773628	4.952772	1232.736452	271.000000
-10.727039	27.082685	-1.773816	4.974680	1231.031116	271.500000
-10.722807	27.078516	-1.773816	4.997721	1230.841634	272.000000
-10.718574	27.045167	-1.774003	5.016230	1229.325779	272.500000
-10.712225	27.078516	-1.774003	5.041160	1230.841634	273.000000
-10.707992	27.066010	-1.773816	5.062690	1230.273188	273.500000
-10.703759	27.005565	-1.773816	5.084220	1227.525702	274.000000
-10.697410	27.011818	-1.773628	5.107639	1227.809925	274.500000
-10.693178	26.997228	-1.774003	5.129169	1227.146738	275.000000
-10.687887	26.982638	-1.773816	5.151455	1226.483552	275.500000
-10.682596	26.980554	-1.773816	5.172607	1226.388811	276.000000
-10.678363	26.959711	-1.774003	5.194515	1225.441402	276.500000
-10.672014	26.936784	-1.774003	5.216423	1224.399252	277.000000
-10.667781	26.884676	-1.774003	5.236820	1222.030730	277.500000
-10.662490	26.926362	-1.773628	5.259861	1223.925548	278.000000
-10.657199	26.911772	-1.774190	5.281014	1223.262361	278.500000
-10.650850	26.811726	-1.773816	5.299900	1218.714798	279.000000
-10.648734	26.895098	-1.773816	5.321430	1222.504434	279.500000
-10.642385	26.851327	-1.773628	5.343338	1220.514875	280.000000
-10.638152	26.849243	-1.773628	5.364868	1220.420134	280.500000
-10.632861	26.845074	-1.773628	5.386776	1220.230652	281.000000
-10.628628	26.820063	-1.773628	5.409817	1219.093761	281.500000
-10.622279	26.811726	-1.773628	5.432480	1218.714798	282.000000
-10.620163	26.724185	-1.773628	5.452500	1214.735680	282.500000
-10.612755	26.765871	-1.774003	5.475163	1216.630498	283.000000
-10.608523	26.765871	-1.774003	5.498204	1216.630498	283.500000
-10.602174	26.740859	-1.773816	5.520112	1215.493607	284.000000
-10.597941	26.724185	-1.773628	5.541265	1214.735680	284.500000
-10.592650	26.711679	-1.773816	5.563172	1214.167234	285.000000
-10.587359	26.678330	-1.774003	5.585080	1212.651380	285.500000
-10.583126	26.599127	-1.773628	5.603589	1209.051226	286.000000
-10.577835	26.680415	-1.774003	5.628896	1212.746121	286.500000
-10.573603	26.661656	-1.773816	5.650804	1211.893453	287.000000
-10.566195	26.624139	-1.773628	5.671957	1210.188116	287.500000
-10.563021	26.622054	-1.773816	5.694998	1210.093375	288.000000
-10.557730	26.582453	-1.773628	5.716528	1208.293298	288.500000
-10.552439	26.597043	-1.773628	5.739191	1208.956485	289.000000
-10.548206	26.582453	-1.773816	5.760344	1208.293298	289.500000
-10.542915	26.557441	-1.774003	5.781874	1207.156407	290.000000
-10.537624	26.553272	-1.774003	5.804160	1206.966926	290.500000
-10.532333	26.492828	-1.774003	5.825312	1204.219439	291.000000
-10.528101	26.511586	-1.773628	5.847975	1205.072107	291.500000
-10.522810	26.507418	-1.774003	5.869883	1204.882626	292.000000
-10.515402	26.380275	-1.774003	5.887259	1199.103430	292.500000
-10.511170	26.515755	-1.774003	5.909166	1205.261589	293.000000
-10.509053	26.465732	-1.773628	5.931830	1202.987808	293.500000
-10.502704	26.436552	-1.774003	5.954871	1201.661435	294.000000
-10.498471	26.411540	-1.773628	5.976401	1200.524544	294.500000
-10.493180	26.407371	-1.773441	5.999065	1200.335062	295.000000
-10.487890	26.390697	-1.774003	6.020972	1199.577135	295.500000
-10.483657	26.323999	-1.773628	6.041747	1196.545426	296.000000
-10.477308	26.353180	-1.773628	6.064033	1197.871799	296.500000
-10.473075	26.323999	-1.773628	6.085563	1196.545426	297.000000
-10.467784	26.344842	-1.774003	6.108604	1197.492835	297.500000
-10.463551	26.315662	-1.773628	6.129379	1196.166462	298.000000
-10.456144	26.294819	-1.774003	6.151664	1195.219053	298.500000
-10.451911	26.290651	-1.773628	6.173572	1195.029571	299.000000
-10.447678	26.194773	-1.773628	6.193214	1190.671490	299.500000
-10.443446	26.267723	-1.774003	6.216633	1193.987422	300.000000
-10.438155	26.253133	-1.774190	6.239296	1193.324235	300.500000
-10.433922	26.219784	-1.774003	6.261960	1191.808381	301.000000
-10.427573	26.213531	-1.773816	6.283867	1191.524158	301.500000
-10.422282	26.165593	-1.773816	6.306153	1189.345117	302.000000
-10.418049	26.163508	-1.773628	6.328439	1189.250376	302.500000
-10.413817	26.163508	-1.774003	6.349213	1189.250376	303.000000
-10.408526	26.144750	-1.773628	6.372255	1188.397708	303.500000
-10.403235	26.130159	-1.773628	6.394918	1187.734522	304.000000
-10.399002	26.082221	-1.773628	6.416070	1185.555481	304.500000
-10.392653	26.078052	-1.773816	6.438734	1185.365999	305.000000
-10.388420	26.073883	-1.774003	6.460264	1185.176517	305.500000
-10.384187	26.000933	-1.773628	6.481039	1181.860586	306.000000
-10.377838	26.063462	-1.774003	6.501058	1184.702813	306.500000
-10.371489	26.044703	-1.773628	6.523344	1183.850145	307.000000
-10.367256	26.019692	-1.774003	6.546007	1182.713254	307.500000
-10.363024	25.961331	-1.773628	6.567160	1180.060508	308.000000
-10.358791	25.994680	-1.773441	6.591334	1181.576363	308.500000
-10.352442	25.967584	-1.773816	6.613242	1180.344731	309.000000
-10.349267	25.911308	-1.774003	6.635150	1177.786727	309.500000
-10.341860	25.940488	-1.773816	6.657813	1179.113099	310.000000
-10.338685	25.902971	-1.773816	6.678965	1177.407763	310.500000
-10.333394	25.911308	-1.773628	6.702384	1177.786727	311.000000
-10.328103	25.902971	-1.773816	6.724292	1177.407763	311.500000
-10.323871	25.869622	-1.773628	6.746956	1175.891909	312.000000
-10.318580	25.861285	-1.773628	6.769619	1175.512945	312.500000
-10.312231	25.761238	-1.773628	6.788505	1170.965381	313.000000
-10.307998	25.823767	-1.774003	6.811924	1173.807609	313.500000
-10.303765	25.819599	-1.773441	6.834587	1173.618127	314.000000
-10.298474	25.782081	-1.773628	6.857251	1171.912791	314.500000
-10.293183	25.773744	-1.774003	6.878403	1171.533827	315.000000
-10.288951	25.748733	-1.773628	6.901066	1170.396936	315.500000
-10.282601	25.729974	-1.773628	6.923352	1169.544268	316.000000
-10.278369	25.669529	-1.773816	6.943371	1166.796782	316.500000
-10.274136	25.711215	-1.773628	6.967546	1168.691600	317.000000
-10.267787	25.688288	-1.773628	6.990209	1167.649450	317.500000
-10.263554	25.644518	-1.773441	7.012117	1165.659891	318.000000
-10.258263	25.644518	-1.773628	7.035536	1165.659891	318.500000
-10.252972	25.611169	-1.774003	7.056688	1164.144036	319.000000
-10.250856	25.494448	-1.773628	7.073308	1158.838546	319.500000
-10.244507	25.600747	-1.773628	7.090683	1163.670332	320.000000
-10.238158	25.621590	-1.773628	7.114858	1164.617741	320.500000
-10.233925	25.602832	-1.773628	7.138276	1163.765073	321.000000
-10.227576	25.527797	-1.773628	7.160184	1160.354400	321.500000
-10.223343	25.536134	-1.773628	7.184358	1160.733364	322.000000
-10.218052	25.527797	-1.773628	7.206644	1160.354400	322.500000
-10.213819	25.490279	-1.774003	7.229685	1158.649064	323.000000
-10.208529	25.494448	-1.773816	7.250838	1158.838546	323.500000
-10.204296	25.463184	-1.774190	7.274257	1157.417432	324.000000
-10.197947	25.444425	-1.773628	7.296164	1156.564764	324.500000
-10.193714	25.423582	-1.774003	7.319583	1155.617355	325.000000
-10.187365	25.419413	-1.773628	7.342247	1155.427873	325.500000
-10.183132	25.402739	-1.773441	7.365288	1154.669946	326.000000
-10.176783	25.311030	-1.773816	7.386062	1150.501346	326.500000
-10.172550	25.369390	-1.773441	7.409104	1153.154091	327.000000
-10.168317	25.348547	-1.774003	7.431389	1152.206682	327.500000
-10.163026	25.329788	-1.773628	7.455563	1151.354014	328.000000
-10.158794	25.323535	-1.773628	7.477471	1151.069791	328.500000
-10.153503	25.286018	-1.773628	7.500890	1149.364455	329.000000
-10.148212	25.273512	-1.773628	7.522798	1148.796010	329.500000
-10.142921	25.202646	-1.773628	7.543951	1145.574819	330.000000
-10.138688	25.261006	-1.773816	7.568125	1148.227564	330.500000
-10.133397	25.229742	-1.773816	7.590788	1146.806451	331.000000
-10.129165	25.198477	-1.774003	7.613829	1145.385337	331.500000
-10.122815	25.194309	-1.773628	7.636493	1145.195855	332.000000
-10.117525	25.152623	-1.774003	7.658778	1143.301037	332.500000
-10.114350	25.117190	-1.773816	7.682197	1141.690442	333.000000
-10.109059	25.115105	-1.773816	7.699572	1141.595701	333.500000
-10.102710	25.127611	-1.773816	7.723747	1142.164146	334.000000
-10.097419	25.119274	-1.773816	7.747165	1141.785183	334.500000
-10.094244	25.052576	-1.774003	7.768696	1138.753474	335.000000
-10.087895	25.060914	-1.773816	7.791359	1139.132437	335.500000
-10.083663	25.044239	-1.773628	7.814022	1138.374510	336.000000
-10.079430	25.027565	-1.773628	7.837063	1137.616583	336.500000
-10.073081	25.010890	-1.773628	7.858971	1136.858655	337.000000
-10.068848	24.990047	-1.773441	7.881635	1135.911246	337.500000
-10.063557	24.977542	-1.773628	7.903543	1135.342801	338.000000
-10.058266	24.915013	-1.774003	7.924695	1132.500574	338.500000
-10.052975	24.950446	-1.773628	7.949625	1134.111169	339.000000
-10.047684	24.923350	-1.773816	7.972288	1132.879537	339.500000
-10.041335	24.848315	-1.773628	7.993441	1129.468865	340.000000
-10.038161	24.896254	-1.774003	8.015349	1131.647906	340.500000
-10.032870	24.846231	-1.773628	8.038012	1129.374124	341.000000
-10.028637	24.852484	-1.773628	8.061431	1129.658347	341.500000
-10.023346	24.844146	-1.773816	8.084850	1129.279383	342.000000
-10.018055	24.812882	-1.773628	8.107513	1127.858269	342.500000
-10.012764	24.794123	-1.773628	8.130932	1127.005601	343.000000
-10.007473	24.717004	-1.773628	8.151706	1123.500188	343.500000
-10.002182	24.752437	-1.774190	8.175125	1125.110783	344.000000
-9.999008	24.748269	-1.773441	8.198922	1124.921301	344.500000
-9.993717	24.712836	-1.773816	8.221585	1123.310706	345.000000
-9.988426	24.704498	-1.773816	8.244249	1122.931742	345.500000
-9.984193	24.669065	-1.773628	8.266156	1121.321147	346.000000
-9.978902	24.614873	-1.773628	8.287309	1118.857883	346.500000
-9.973611	24.533586	-1.773254	8.302418	1115.162988	347.000000
-9.968320	24.662812	-1.773816	8.329614	1121.036924	347.500000
-9.964088	24.623211	-1.773628	8.353788	1119.236847	348.000000
-9.956680	24.577356	-1.773441	8.377207	1117.152547	348.500000
-9.953506	24.560682	-1.773441	8.399870	1116.394620	349.000000
-9.948215	24.518996	-1.773628	8.422534	1114.499802	349.500000
-9.941866	24.527333	-1.773628	8.446708	1114.878765	350.000000
-9.937633	24.510658	-1.774003	8.467860	1114.120838	350.500000
-9.933400	24.493984	-1.773628	8.490524	1113.362911	351.000000
-9.928109	24.468972	-1.773628	8.514698	1112.226020	351.500000
-9.922818	24.416865	-1.773628	8.535851	1109.857497	352.000000
-9.917527	24.423118	-1.773628	8.559269	1110.141720	352.500000
-9.913295	24.412696	-1.774003	8.582688	1109.668016	353.000000
-9.905887	24.339746	-1.773628	8.604218	1106.352084	353.500000
-9.903771	24.387685	-1.773628	8.625749	1108.531125	354.000000
-9.899538	24.345999	-1.773628	8.648412	1106.636307	354.500000
-9.893189	24.331409	-1.774003	8.671831	1105.973120	355.000000
-9.888956	24.300144	-1.774003	8.692983	1104.552007	355.500000
-9.882607	24.310566	-1.774003	8.718668	1105.025711	356.000000
-9.878375	24.270964	-1.773816	8.742087	1103.225634	356.500000
-9.875200	24.200098	-1.773628	8.763240	1100.004443	357.000000
-9.867793	24.233447	-1.773628	8.787036	1101.520298	357.500000
-9.863560	24.210519	-1.773816	8.810077	1100.478148	358.000000
-9.858269	24.200098	-1.773628	8.835007	1100.004443	358.500000
-9.852978	24.170918	-1.773628	8.856537	1098.678071	359.000000
-9.848745	24.154243	-1.773816	8.879200	1097.920143	359.500000
-9.843454	24.122979	-1.773628	8.902242	1096.499030	360.000000
-9.838164	24.010426	-1.773441	8.918861	1091.383021	360.500000
-9.832873	24.122979	-1.773816	8.945302	1096.499030	361.000000
-9.829698	24.079208	-1.773628	8.967965	1094.509471	361.500000
-9.823349	24.047944	-1.773628	8.991384	1093.088357	362.000000
-9.818058	24.043775	-1.773816	9.013670	1092.898875	362.500000
-9.812767	23.993752	-1.773816	9.036711	1090.625094	363.000000
-9.809592	23.977078	-1.773628	9.060885	1089.867166	363.500000
-9.803243	23.977078	-1.773628	9.082038	1089.867166	364.000000
-9.799011	23.956235	-1.773628	9.106212	1088.919757	364.500000
-9.792662	23.952066	-1.773628	9.130764	1088.730275	365.000000
-9.787371	23.877031	-1.773628	9.153049	1085.319603	365.500000
-9.784196	23.877031	-1.773816	9.175713	1085.319603	366.000000
-9.778905	23.860357	-1.773628	9.199132	1084.561676	366.500000
-9.774672	23.822839	-1.773816	9.222550	1082.856339	367.000000
-9.768323	23.843682	-1.773441	9.242947	1083.803748	367.500000
-9.764091	23.810334	-1.773628	9.267122	1082.287894	368.000000
-9.758800	23.787406	-1.773628	9.290163	1081.245744	368.500000
-9.753509	23.722793	-1.773628	9.312448	1078.308776	369.000000
-9.748218	23.754058	-1.773628	9.338134	1079.729889	369.500000
-9.742927	23.731130	-1.773816	9.360797	1078.687739	370.000000
-9.736578	23.666517	-1.774003	9.383083	1075.750771	370.500000
-9.732345	23.687360	-1.773628	9.406501	1076.698180	371.000000
-9.729170	23.626915	-1.773628	9.429543	1073.950694	371.500000
-9.722821	23.643590	-1.773816	9.453339	1074.708621	372.000000
-9.717530	23.620662	-1.773628	9.477136	1073.666471	372.500000
-9.713298	23.585229	-1.773628	9.499044	1072.055876	373.000000
-9.711181	23.460171	-1.773628	9.516796	1066.371422	373.500000
-9.702716	23.385136	-1.773628	9.530017	1062.960749	374.000000
-9.698483	23.585229	-1.773628	9.557968	1072.055876	374.500000
-9.694250	23.547712	-1.773628	9.584031	1070.350540	375.000000
-9.687901	23.493520	-1.773816	9.608961	1067.887276	375.500000
-9.682610	23.485183	-1.773628	9.633513	1067.508313	376.000000
-9.679436	23.420570	-1.773628	9.656554	1064.571345	376.500000
-9.674145	23.414317	-1.773628	9.679595	1064.287122	377.000000
-9.668854	23.370546	-1.773254	9.701125	1062.297563	377.500000
-9.663563	23.380968	-1.773816	9.725677	1062.771267	378.000000
-9.658272	23.355956	-1.774003	9.749096	1061.634376	378.500000
-9.651923	23.312186	-1.773816	9.771382	1059.644817	379.000000
-9.647690	23.310102	-1.773628	9.795178	1059.550077	379.500000
-9.643457	23.262163	-1.773816	9.817086	1057.371036	380.000000
-9.638166	23.268416	-1.773628	9.842016	1057.655258	380.500000
-9.632876	23.276753	-1.774003	9.863924	1058.034222	381.000000
-9.629701	23.226730	-1.773816	9.887343	1055.760440	381.500000
-9.623352	23.210055	-1.773628	9.912272	1055.002513	382.000000
-9.618061	23.135020	-1.773628	9.933425	1051.591840	382.500000
-9.613828	23.145442	-1.773628	9.957599	1052.065545	383.000000
-9.608537	23.143358	-1.773628	9.981018	1051.970804	383.500000
-9.604304	23.089166	-1.773816	10.004437	1049.507541	384.000000
-9.599014	23.110009	-1.773816	10.026722	1050.454950	384.500000
-9.593723	23.059986	-1.774003	10.050141	1048.181168	385.000000
-9.588432	23.047480	-1.774003	10.075826	1047.612722	385.500000
-9.583141	23.028721	-1.773254	10.099623	1046.760054	386.000000
-9.578908	22.993288	-1.773628	10.122664	1045.149459	386.500000
-9.573617	22.993288	-1.774003	10.146460	1045.149459	387.000000
-9.567268	22.859893	-1.773441	10.163836	1039.086041	387.500000
-9.563035	22.932843	-1.773628	10.188765	1042.401973	388.000000
-9.558803	22.916169	-1.773628	10.212940	1041.644045	388.500000
-9.553512	22.884905	-1.773628	10.236358	1040.222932	389.000000
-9.549279	22.849471	-1.773628	10.259777	1038.612336	389.500000
-9.543988	22.843219	-1.773628	10.284329	1038.328114	390.000000
-9.538697	22.801533	-1.773628	10.307370	1036.433296	390.500000
-9.533406	22.730666	-1.773628	10.327767	1033.212105	391.000000
-9.528115	22.782774	-1.773254	10.353830	1035.580627	391.500000
-9.523882	22.747341	-1.773816	10.378382	1033.970032	392.000000
-9.516475	22.711908	-1.773628	10.401801	1032.359437	392.500000
-9.513301	22.709823	-1.774003	10.424464	1032.264696	393.000000
-9.508010	22.647294	-1.773628	10.448639	1029.422469	393.500000
-9.503777	22.647294	-1.773816	10.473190	1029.422469	394.000000
-9.498486	22.643126	-1.773628	10.495476	1029.232987	394.500000
-9.493195	22.601440	-1.773628	10.519650	1027.338169	395.000000
-9.488962	22.584765	-1.773628	10.543825	1026.580241	395.500000
-9.484730	22.518068	-1.773628	10.566488	1023.548532	396.000000
-9.480497	22.518068	-1.773628	10.590662	1023.548532	396.500000
-9.473089	22.509731	-1.773628	10.614837	1023.169569	397.000000
-9.469915	22.472213	-1.773628	10.639011	1021.464233	397.500000
-9.463566	22.461792	-1.773628	10.662052	1020.990528	398.000000
-9.457217	22.443033	-1.773441	10.686604	1020.137860	398.500000
-9.452984	22.393010	-1.773628	10.710778	1017.864078	399.000000
-9.448751	22.334649	-1.774003	10.734197	1015.211333	399.500000
-9.443460	22.361745	-1.773628	10.759127	1016.442965	400.000000
-9.439228	22.330481	-1.773628	10.783301	1015.021851	400.500000
-9.438169	22.197086	-1.773628	10.801054	1008.958433	401.000000
-9.428646	22.317975	-1.773628	10.827117	1014.453406	401.500000
-9.423355	22.245024	-1.773628	10.852046	1011.137474	402.000000
-9.419122	22.234603	-1.773628	10.877732	1010.663769	402.500000
-9.412773	22.209591	-1.773628	10.901150	1009.526878	403.000000
-9.409598	22.176243	-1.773441	10.924947	1008.011024	403.500000
-9.404307	22.153315	-1.773816	10.950254	1006.968874	404.000000
-9.397958	22.069943	-1.774003	10.971407	1003.179238	404.500000
-9.393726	22.101208	-1.773628	10.995581	1004.600351	405.000000
-9.388435	22.086618	-1.774003	11.021644	1003.937165	405.500000
-9.381027	22.047016	-1.773628	11.046951	1002.137088	406.000000
-9.378911	22.034510	-1.773628	11.070748	1001.568642	406.500000
-9.374678	21.976150	-1.773628	11.095300	998.915897	407.000000
-9.368329	21.959475	-1.774003	11.120230	998.157970	407.500000
-9.364096	21.921958	-1.773816	11.141382	996.452633	408.000000
-9.357747	21.924042	-1.773628	11.167823	996.547374	408.500000
-9.353515	21.888609	-1.773628	11.192375	994.936779	409.000000
-9.349282	21.832333	-1.773816	11.217682	992.378775	409.500000
-9.343991	21.828164	-1.774003	11.241856	992.189293	410.000000
-9.338700	21.780226	-1.773628	11.264142	990.010252	410.500000
-9.334467	21.786478	-1.773628	11.290205	990.294475	411.000000
-9.328118	21.765635	-1.773628	11.312868	989.347066	411.500000
-9.323885	21.742708	-1.773441	11.338931	988.304916	412.000000
-9.318594	21.701022	-1.773628	11.363483	986.410097	412.500000
-9.313303	21.642662	-1.773628	11.386146	983.757352	413.000000
-9.308012	21.650999	-1.773628	11.412587	984.136316	413.500000
-9.302722	21.623903	-1.773628	11.436761	982.904684	414.000000
-9.300605	21.519688	-1.773628	11.457914	978.167639	414.500000
-9.294256	21.603060	-1.773628	11.480577	981.957275	415.000000
-9.288965	21.536362	-1.774190	11.506262	978.925566	415.500000
-9.283674	21.515519	-1.773628	11.531947	977.978157	416.000000
-9.279442	21.509267	-1.773816	11.556122	977.693934	416.500000
-9.275209	21.459243	-1.773628	11.580674	975.420152	417.000000
-9.267801	21.446738	-1.773628	11.605981	974.851707	417.500000
-9.262511	21.375871	-1.773254	11.629022	971.630516	418.000000
-9.259336	21.375871	-1.773816	11.653952	971.630516	418.500000
-9.254045	21.352944	-1.773628	11.680015	970.588366	419.000000
-9.248754	21.315427	-1.773628	11.704944	968.883030	419.500000
-9.243463	21.300837	-1.773628	11.729496	968.219844	420.000000
-9.238172	21.254982	-1.773628	11.754048	966.135544	420.500000
-9.234998	21.223717	-1.774003	11.778600	964.714430	421.000000
-9.228649	21.136177	-1.773628	11.799375	960.735312	421.500000
-9.222299	21.196622	-1.773628	11.826571	963.482798	422.000000
-9.219125	21.157020	-1.773816	11.852256	961.682721	422.500000
-9.213834	21.111165	-1.773816	11.876431	959.598421	423.000000
-9.208543	21.098659	-1.773628	11.901738	959.029976	423.500000
-9.204310	21.046552	-1.773628	11.926290	956.661453	424.000000
-9.199019	21.029878	-1.774003	11.951220	955.903526	424.500000
-9.194787	21.031962	-1.773628	11.974638	955.998267	425.000000
-9.188438	20.984023	-1.773816	12.001079	953.819226	425.500000
-9.184205	20.961096	-1.773254	12.026764	952.777076	426.000000
-9.177856	20.890229	-1.773628	12.050938	949.555885	426.500000
-9.174681	20.883977	-1.773816	12.075868	949.271662	427.000000
-9.168332	20.865218	-1.773628	12.101931	948.418994	427.500000
-9.168332	20.729738	-1.773628	12.118551	942.260835	428.000000
-9.158808	20.881892	-1.773628	12.140459	949.176922	428.500000
-9.153517	20.798520	-1.773628	12.168788	945.387285	429.000000
-9.148226	20.744328	-1.773628	12.195229	942.924022	429.500000
-9.143994	20.692221	-1.773628	12.219780	940.555499	430.000000
-9.137645	20.700558	-1.774003	12.246599	940.934463	430.500000
-9.133412	20.660956	-1.773441	12.270773	939.134386	431.000000
-9.129179	20.596343	-1.774003	12.294947	936.197418	431.500000
-9.123888	20.600512	-1.773816	12.320632	936.386899	432.000000
-9.118597	20.552573	-1.773816	12.345562	934.207859	432.500000
-9.113306	20.548404	-1.773628	18.000032	934.018377	433.000000
-9.108015	20.512971	-1.773816	18.000032	932.407781	433.500000
-9.103783	20.475454	-1.773628	18.000032	930.702445	434.000000
-9.098492	20.450442	-1.773628	18.000032	929.565554	434.500000
-9.093201	20.342059	-1.773628	18.000032	924.639027	435.000000
-9.088968	20.402503	-1.773628	18.000032	927.386513	435.500000
-9.084735	20.375407	-1.773628	18.000032	926.154882	436.000000
-9.078386	20.317047	-1.773816	18.000032	923.502136	436.500000
-9.073095	20.308710	-1.773816	18.000032	923.123173	437.000000
-9.068863	20.242012	-1.773816	18.000032	920.091464	437.500000
-9.063572	20.225338	-1.773816	18.000032	919.333536	438.000000
-9.059339	20.208663	-1.773628	18.000032	918.575609	438.500000
-9.054048	20.166977	-1.773628	18.000032	916.680791	439.000000
-9.048757	20.125291	-1.773628	18.000032	914.785973	439.500000
-9.042408	20.071100	-1.773628	18.000032	912.322709	440.000000
-9.038175	20.069015	-1.773628	18.000032	912.227968	440.500000
-9.033942	20.016908	-1.773628	18.000032	909.859446	441.000000
-9.025477	19.966885	-1.773628	18.000032	907.585664	441.500000
-9.025477	20.008571	-1.773628	18.000032	909.480482	442.000000
-9.018070	19.962716	-1.773628	18.000032	907.396182	442.500000
-9.012779	19.914777	-1.773628	18.000032	905.217141	443.000000
-9.008546	19.841827	-1.774003	18.000032	901.901210	443.500000
-9.004313	19.854332	-1.774003	18.000032	902.469655	444.000000
-8.999022	19.816815	-1.773628	18.000032	900.764319	444.500000
-8.993731	19.756370	-1.773441	18.000032	898.016833	445.000000
-8.989499	19.775129	-1.773441	18.000032	898.869501	445.500000
-8.983150	19.700094	-1.773628	18.000032	895.458828	446.000000
-8.979975	19.675083	-1.773628	18.000032	894.321937	446.500000
-8.973626	19.658408	-1.773628	18.000032	893.564010	447.000000
-8.969393	19.608385	-1.773628	18.000032	891.290228	447.500000
-8.964102	19.581289	-1.773628	18.000032	890.058597	448.000000
-8.957753	19.481243	-1.773628	18.000032	885.511033	448.500000
-8.953520	19.512507	-1.773628	18.000032	886.932147	449.000000
-8.948229	19.485411	-1.773816	18.000032	885.700515	449.500000
-8.942938	19.445810	-1.773441	18.000032	883.900438	450.000000
-8.938706	19.412461	-1.773628	18.000032	882.384583	450.500000
-8.934473	19.366606	-1.773441	18.000032	880.300283	451.000000
-8.929182	19.324920	-1.773441	18.000032	878.405465	451.500000
-8.923891	19.258223	-1.774003	18.000032	875.373756	452.000000
-8.918600	19.281150	-1.773441	18.000032	876.415906	452.500000
-8.913309	19.241548	-1.773628	18.000032	874.615829	453.000000
-8.909077	19.187356	-1.774003	18.000032	872.152565	453.500000
-8.902727	19.162345	-1.773628	18.000032	871.015675	454.000000
-8.898495	19.108153	-1.773628	18.000032	868.552411	454.500000
-8.896378	19.041455	-1.773628	18.000032	865.520702	455.000000
-8.890029	19.076889	-1.773628	18.000032	867.131297	455.500000
-8.884738	19.051877	-1.773628	18.000032	865.994407	456.000000
-8.879447	18.997685	-1.773628	18.000032	863.531143	456.500000
-8.873098	18.922650	-1.774003	18.000032	860.120470	457.000000
-8.868865	18.908060	-1.773628	18.000032	859.457284	457.500000
-8.863575	18.891386	-1.773628	18.000032	858.699357	458.000000
-8.859342	18.826773	-1.773628	18.000032	855.762389	458.500000
-8.854051	18.828857	-1.773628	18.000032	855.857130	459.000000
-8.847702	18.762159	-1.773441	18.000032	852.825421	459.500000
-8.843469	18.718389	-1.773628	18.000032	850.835862	460.000000
-8.839236	18.678787	-1.773628	18.000032	849.035784	460.500000
-8.833945	18.657944	-1.773628	18.000032	848.088375	461.000000
-8.828654	18.614174	-1.773628	18.000032	846.098816	461.500000
-8.822305	18.524549	-1.773628	18.000032	842.024957	462.000000
-8.818073	18.553729	-1.773628	18.000032	843.351330	462.500000
-8.813840	18.489116	-1.773441	18.000032	840.414362	463.000000
-8.809607	18.474526	-1.773628	18.000032	839.751176	463.500000
-8.803258	18.441177	-1.774003	18.000032	838.235321	464.000000
-8.799025	18.393238	-1.773628	18.000032	836.056280	464.500000
-8.793734	18.355721	-1.773628	18.000032	834.350944	465.000000
-8.788443	18.268180	-1.773816	18.000032	830.371826	465.500000
-8.784211	18.278602	-1.773816	18.000032	830.845531	466.000000
-8.778920	18.245253	-1.773628	18.000032	829.329676	466.500000
-8.773629	18.195230	-1.773628	18.000032	827.055894	467.000000
-8.767280	18.174387	-1.773254	18.000032	826.108485	467.500000
-8.765163	18.107689	-1.773628	18.000032	823.076776	468.000000
-8.758814	18.053497	-1.773628	18.000032	820.613513	468.500000
-8.754581	17.999305	-1.773628	18.000032	818.150249	469.000000
-8.749290	18.015980	-1.773441	18.000032	818.908176	469.500000
-8.744000	17.961788	-1.773628	18.000032	816.444913	470.000000
-8.737650	17.895090	-1.773441	18.000032	813.413204	470.500000
-8.734476	17.874247	-1.773441	18.000032	812.465795	471.000000
-8.729185	17.832561	-1.773628	18.000032	810.570977	471.500000
-8.724952	17.799213	-1.773441	18.000032	809.055122	472.000000
-8.718603	17.774201	-1.773628	18.000032	807.918231	472.500000
-8.714370	17.717925	-1.773816	18.000032	805.360227	473.000000
-8.709079	17.669986	-1.773816	18.000032	803.181186	473.500000
-8.703789	17.594951	-1.773254	18.000032	799.770514	474.000000
-8.697439	17.603288	-1.774003	18.000032	800.149477	474.500000
-8.694265	17.549097	-1.773628	18.000032	797.686214	475.000000
-8.690032	17.459472	-1.773816	18.000032	793.612355	475.500000
-8.682625	17.490736	-1.774003	18.000032	795.033468	476.000000
-8.680508	17.407364	-1.774003	18.000032	791.243832	476.500000
-8.674159	17.365678	-1.773441	18.000032	789.349014	477.000000
-8.668868	17.344835	-1.773628	18.000032	788.401605	477.500000
-8.663577	17.292728	-1.773628	18.000032	786.033082	478.000000
-8.659345	17.261463	-1.773628	18.000032	784.611969	478.500000
-8.655112	17.148911	-1.773816	18.000032	779.495960	479.000000
-8.648763	17.176007	-1.774003	18.000032	780.727592	479.500000
-8.644530	17.109309	-1.773441	18.000032	777.695883	480.000000
-8.639239	17.086382	-1.773628	18.000032	776.653733	480.500000
-8.635006	17.040528	-1.773628	18.000032	774.569433	481.000000
-8.629716	16.973830	-1.773628	18.000032	771.537724	481.500000
-8.627599	16.840435	-1.773628	18.000032	765.474306	482.000000
-8.619134	16.794580	-1.773441	18.000032	763.390006	482.500000
-8.613843	16.934228	-1.773628	18.000032	769.737646	483.000000
-8.608552	16.825845	-1.773628	18.000032	764.811119	483.500000
-8.604319	16.742473	-1.773441	18.000032	761.021483	484.000000
-8.599028	16.707040	-1.773816	18.000032	759.410888	484.500000
-8.593737	16.657016	-1.774003	18.000032	757.137106	485.000000
-8.589504	16.650763	-1.774003	18.000032	756.852883	485.500000
-8.583155	16.615330	-1.773441	18.000032	755.242288	486.000000
-8.576806	16.540296	-1.773628	18.000032	751.831615	486.500000
-8.572574	16.490272	-1.773254	18.000032	749.557834	487.000000
-8.568341	16.406900	-1.773816	18.000032	745.768197	487.500000
-8.564108	16.392310	-1.773628	18.000032	745.105011	488.000000
-8.558817	16.352709	-1.773628	18.000032	743.304934	488.500000
-8.555643	16.273505	-1.773816	18.000032	739.704779	489.000000
-8.549293	16.290180	-1.773816	18.000032	740.462707	489.500000
-8.542944	16.202639	-1.773628	18.000032	736.483589	490.000000
-8.538712	16.140110	-1.773441	18.000032	733.641361	490.500000
-8.534479	16.098424	-1.773628	18.000032	731.746543	491.000000
-8.530246	16.067159	-1.773628	18.000032	730.325430	491.500000
-8.523897	16.008799	-1.773628	18.000032	727.672684	492.000000
-8.517548	15.908753	-1.774190	18.000032	723.125121	492.500000
-8.513315	15.898331	-1.773441	18.000032	722.651416	493.000000
-8.509082	15.844139	-1.773628	18.000032	720.188153	493.500000
-8.503791	15.800369	-1.773816	18.000032	718.198594	494.000000
-8.498501	15.758683	-1.773628	18.000032	716.303776	494.500000
-8.494268	15.698238	-1.773628	18.000032	713.556290	495.000000
-8.487919	15.644047	-1.773628	18.000032	711.093026	495.500000
-8.483686	15.529410	-1.773628	18.000032	705.882276	496.000000
-8.479453	15.573180	-1.773628	18.000032	707.871835	496.500000
-8.474162	15.506483	-1.773628	18.000032	704.840126	497.000000
-8.468871	15.427279	-1.773441	18.000032	701.239972	497.500000
-8.463580	15.389762	-1.774003	18.000032	699.534635	498.000000
-8.458289	15.306390	-1.773628	18.000032	695.744999	498.500000
-8.454057	15.254282	-1.773441	18.000032	693.376477	499.000000
-8.449824	15.239692	-1.773628	18.000032	692.713290	499.500000
-8.443475	15.164658	-1.773628	18.000032	689.302618	500.000000
-8.439242	15.114634	-1.773441	18.000032	687.028836	500.500000
-8.432893	15.031262	-1.773628	18.000032	683.239200	501.000000
-8.428660	14.997914	-1.773628	18.000032	681.723345	501.500000
-8.424428	14.939553	-1.773628	18.000032	679.070600	502.000000
-8.420195	14.860350	-1.773628	18.000032	675.470445	502.500000
-8.413846	14.860350	-1.773628	18.000032	675.470445	503.000000
-8.409613	14.772809	-1.773628	18.000032	671.491327	503.500000
-8.404322	14.697774	-1.773628	18.000032	668.080655	504.000000
-8.399031	14.616487	-1.773441	18.000032	664.385760	504.500000
-8.393740	14.591475	-1.773628	18.000032	663.248869	505.000000
-8.388449	14.526862	-1.774003	18.000032	660.311901	505.500000
-8.384216	14.439321	-1.773628	18.000032	656.332783	506.000000
-8.378926	14.422647	-1.773628	18.000032	655.574855	506.500000
-8.373635	14.314263	-1.773628	18.000032	650.648328	507.000000
-8.369402	14.264240	-1.773816	18.000032	648.374546	507.500000
-8.364111	14.147519	-1.773628	18.000032	643.069056	508.000000
-8.359878	-0.053671	-1.773441	9.449940	-2.439578	508.500000
-8.354587	-0.025533	-1.773628	9.462782	-1.160576	509.000000
-8.348238	-0.030743	-1.773628	9.464293	-1.397428	509.500000
-8.344005	-0.025533	-1.773254	9.486956	-1.160576	510.000000
-8.339773	-0.030743	-1.773441	9.512264	-1.397428	510.500000
-8.333424	-0.026054	-1.773254	9.548525	-1.184261	511.000000
-8.329191	-0.027617	-1.773254	9.580632	-1.255317	511.500000
-8.323900	-0.028138	-1.773628	9.616138	-1.279002	512.000000
-8.319667	-0.028659	-1.773441	9.649377	-1.302687	512.500000
-8.314376	-0.028659	-1.773628	9.671285	-1.302687	513.000000
-8.309085	-0.026575	-1.773628	9.704525	-1.207947	513.500000
